File: Part 6 Raman Spectroscopy/Raman data/diamond_data.txt
#Wave		#Intensity
2381.98	11508.1
2375.26	11433.3
2368.54	11443.5
2361.81	11355.8
2355.08	11359.2
2348.34	11328.9
2341.6	11163
2334.85	11220.5
2328.1	10962.1
2321.34	11062.3
2314.58	10985.9
2307.81	10934
2301.03	10885.2
2294.25	10756.1
2287.47	10693.8
2280.68	10667.2
2273.88	10618.7
2267.08	10528.7
2260.27	10496.9
2253.46	10422.2
2246.64	10432.8
2239.82	10359.7
2232.99	10303.3
2226.16	10240.9
2219.32	10118.5
2212.47	9965.57
2205.62	10092.6
2198.76	9966.13
2191.9	9938.68
2185.04	9995.82
2178.16	9816.57
2171.29	9800.47
2164.4	9718.68
2157.51	9663.87
2150.62	9608.39
2143.72	9516.49
2136.81	9483.51
2129.9	9455.78
2122.98	9451.11
2116.06	9254.91
2109.13	9383.91
2102.2	9411.88
2095.26	9374.63
2088.31	9241.97
2081.37	9269.21
2074.41	9176.72
2067.45	9155.23
2060.48	9161.79
2053.51	9053.37
2046.53	9056.29
2039.54	9045.96
2032.55	9009.16
2025.55	8987.84
2018.55	8911.5
2011.54	8921.8
2004.53	8904.97
1997.51	8860.32
1990.49	8752.1
1983.46	8803.39
1976.42	8797.61
1969.38	8742.94
1962.33	8672.31
1955.28	8722.72
1948.22	8692.96
1941.15	8650.87
1934.08	8544.89
1927	8563.97
1919.92	8600.42
1912.83	8546.91
1905.74	8477.54
1898.64	8475.57
1891.53	8504.7
1884.42	8426.83
1877.3	8317.32
1870.17	8342.86
1863.04	8207.63
1855.91	8303.78
1848.77	8273.84
1841.62	8246.81
1834.46	8176
1827.3	8235.2
1820.14	8112.87
1812.97	8114.68
1805.79	8076.39
1798.6	8055.33
1791.41	8100.75
1784.22	8105.39
1777.02	8034.37
1769.81	7944.21
1762.59	7956.77
1755.37	7891.01
1748.15	7818.24
1740.91	7711.48
1733.68	7756.1
1726.43	7846.74
1719.18	7634.59
1711.92	7747.11
1704.66	7711.56
1697.39	7838.66
1690.12	7792.48
1682.83	7833.88
1675.55	7758.85
1668.25	7791.03
1660.95	7766.82
1653.65	7749.69
1646.33	7635.59
1639.02	7540.63
1631.69	7534.23
1624.36	7515.9
1617.02	7499
1609.68	7512.92
1602.33	7431.7
1594.97	7391.84
1587.61	7329
1580.24	7317.17
1572.87	7401.5
1565.49	7327.65
1558.1	7495.99
1550.71	7950.38
1543.3	8351.9
1535.9	8677.79
1528.49	8824.95
1521.07	8669.16
1513.64	8462.42
1506.21	8179.95
1498.77	7795.03
1491.33	7457
1483.88	7196.1
1476.42	7011.44
1468.95	6977.18
1461.48	6859.04
1454.01	6852.45
1446.52	6798.47
1439.03	6602.55
1431.54	6473.46
1424.03	6456.92
1416.53	6517.04
1409.01	6663.88
1401.49	6796.12
1393.96	6853.72
1386.42	6839.6
1378.88	6927.71
1371.33	7078.29
1363.78	7193.23
1356.22	7506.42
1348.65	9219.21
1341.07	39382.2
1333.49	91236.9
1325.91	39050.3
1318.31	9152.7
1310.71	7328.77
1303.1	6767.13
1295.49	6441.33
1287.87	6022.36
1280.24	5914.03
1272.61	5781.65
1264.96	5646.8
1257.32	5479.25
1249.66	5438.21
1242	5363.69
1234.34	5300.03
1226.66	5267.94
1218.98	5194.41
1211.29	5114.33
1203.6	5160.61
1195.9	5150.08
1188.19	5102.23
1180.47	4985.84
1172.75	5007.42
1165.02	4945.84
1157.29	4983.35
1149.55	4865.46
1141.8	4837.97
1134.04	4757.52
1126.28	4667.93
1118.51	4663.15
1110.73	4660.37
1102.95	4630.51
1095.16	4596.74
1087.37	4501.73
1079.56	4492.48
1071.75	4477.33
1063.93	4460.89
1056.11	4474.02
1048.28	4345.38
1040.44	4336.29
1032.6	4331.14
1024.74	4299.82
1016.88	4218.85
1009.02	4215.77
1001.15	4131.74
993.266	4143.73
985.379	4111.38
977.484	4086.25
969.584	4042.29
961.676	4047.15
953.762	3979.92
945.84	3939.41
937.91	3885.35
929.973	3905.2
922.031	3904.95
914.08	3891.13
906.123	3861.83
898.158	3809.35
890.186	3787.26
882.207	3756.18
874.221	3711
866.229	3749.47
858.229	3685.1
850.221	3669.61
842.207	3630.42
834.186	3611.15
826.156	3588.07
818.119	3634.74
810.076	3526.7
802.025	3512.05
793.969	3535.68
785.902	3470.07
777.83	3515.33
769.752	3364.61
761.664	3392.73
753.57	3368.72
745.469	3294.65
737.359	3323.37
729.244	3263.39
721.121	3228.19
712.99	3203.79
704.852	3222.37
696.707	3194.23
688.555	3112.56
680.395	3160.76
672.227	3083.66
664.053	3082.13
655.869	3032.87
647.68	3000
639.484	3030.52
631.279	2997.08
623.066	2936.17
614.848	2911
606.621	2905.86
598.387	2894.49
590.145	2899.97
581.896	2847.5
573.639	2826.87
565.375	2754.03
557.104	2759.61
548.824	2791.23
540.537	2722.96
532.242	2683.31
523.941	2653.01
515.631	2582.57
507.314	2578.98
498.99	2522.92
490.658	2608.81
482.318	2563.92
473.971	2486.47
465.615	2532.79
457.252	2463.49
448.883	2436.07
440.504	2405.63
432.119	2401.59
423.725	2336.33
415.324	2376.39
406.916	2347.94
398.498	2312.81
390.074	2289.34
381.643	2223.25
373.203	2246.17
364.756	2219.17
356.299	2136.3
347.836	2219.95
339.365	2113.56
330.887	2146.77
322.4	2090.3
313.906	2034.53
305.404	2019.96
296.895	2012.06
288.377	1941.43
279.852	1974.59
271.316	1934.83
262.775	1907.17
254.227	1906.61
245.67	1861.61
237.104	1832.29
228.531	1831.79
219.949	1774.4
211.361	1733.87
202.764	1733.46
194.158	1697.21
185.547	1678.93
176.926	1677.37
168.297	1647.83
159.658	1634.99
151.014	1637.63
142.361	1626.61
133.699	1577.63
125.031	1560.15
116.354	1429.01
107.668	1131.25
98.9746	539.09