File: Part 6 Raman Spectroscopy/Raman data/Microcellulose_baseline_corrected.txt
#Wave		#Intensity
3112.1	-74.3055
3104.24	-38.7455
3096.38	0.969546
3088.5	3.016361
3080.6	14.561
3072.7	73.2482
3064.78	18.9179
3056.84	34.5195
3048.89	12.1602
3040.93	-40.2548
3032.95	-2.250724
3024.96	-22.0219
3016.96	-31.1787
3008.94	-51.5691
3000.91	38.3082
2992.86	117.72
2984.8	211.707
2976.73	436.358
2968.64	631.306
2960.54	712.68
2952.42	867.376
2944.29	916.126
2936.15	1263.54
2927.99	1408.07
2919.82	1766.54
2911.63	2232.52
2903.43	2494.27
2895.21	2811.02
2886.98	2599.36
2878.73	2282.82
2870.47	1835.8
2862.2	1361.03
2853.91	1053.77
2845.61	811.311
2837.29	464.654
2828.95	339.977
2820.61	252.965
2812.24	248.43
2803.87	102.659
2795.47	111.853
2787.06	41.9991
2778.64	25.7197
2770.21	-63.1148
2761.75	-96.6469
2753.29	-9.485056
2744.8	138.245
2736.3	100.715
2727.79	184.961
2719.26	97.2299
2710.72	118.155
2702.16	64.3215
2693.59	63.9079
2685	-9.044100
2676.39	8.709622
2667.77	-23.1305
2659.14	35.081
2650.49	24.8648
2641.82	6.663480
2633.14	38.4224
2624.44	-90.9915
2615.72	5.010820
2606.99	-18.7274
2598.25	-25.9426
2589.49	9.902617
2580.71	18.9147
2571.92	-76.4744
2563.11	83.429
2554.28	10.386
2545.44	51.2958
2536.58	138.568
2527.71	38.9448
2518.82	-22.0831
2509.92	15.8272
2500.99	-9.055808
2492.05	118.804
2483.1	-53.0951
2474.13	86.0378
2465.14	166.482
2456.14	-92.9392
2447.12	94.8173
2438.08	56.9542
2429.03	15.1089
2419.96	-78.2569
2410.87	12.5654
2401.77	-1.749082
2392.65	64.6485
2383.51	168.049
2374.36	37.2278
2365.18	-128.549
2356	83.7158
2346.79	-52.606
2337.57	-11.245
2328.33	35.5618
2319.08	72.2322
2309.8	85.2087
2300.51	-70.5276
2291.2	135.095
2281.88	44.6023
2272.54	-69.0998
2263.18	14.8937
2253.8	174.68
2244.4	258.587
2234.99	77.9279
2225.56	64.8823
2216.11	7.268041
2206.65	87.5355
2197.17	-112.164
2187.66	68.0264
2178.14	146.217
2168.61	0.391152
2159.05	96.3683
2149.48	109.713
2139.89	55.7588
2130.28	20.8298
2120.65	105.549
2111.01	35.1641
2101.35	130.351
2091.66	187.714
2081.96	-29.8539
2072.25	8.050633
2062.51	253.746
2052.75	31.4958
2042.98	17.0062
2033.19	-37.0285
2023.38	-200.073
2013.55	65.9783
2003.7	353.407
1993.83	230.247
1983.95	235.13
1974.04	167.598
1964.12	326.868
1954.17	53.5024
1944.21	154.686
1934.23	127.541
1924.23	-30.8368
1914.21	-113.394
1904.17	164.082
1894.11	141.867
1884.03	57.0775
1873.94	177.168
1863.82	179.345
1853.68	165.378
1843.53	69.9672
1833.35	-9.249970
1823.16	38.8055
1812.94	180.048
1802.71	212.061
1792.45	130.307
1782.18	91.3051
1771.89	218.925
1761.57	271.804
1751.24	354.998
1740.88	438.917
1730.51	419.871
1720.11	411.07
1709.7	262.491
1699.26	295.595
1688.8	403.031
1678.33	476.494
1667.83	114.147
1657.31	554.35
1646.77	314.001
1636.21	592.386
1625.63	408.246
1615.03	193.594
1604.41	531.111
1593.76	472.129
1583.1	282.331
1572.41	252.187
1561.71	329.1
1550.98	-28.3375
1540.23	281.467
1529.46	131.792
1518.67	22.1087
1507.85	225.198
1497.02	258.502
1486.16	971.118
1475.28	2569.2
1464.38	2514.94
1453.46	1759.89
1442.52	1363.13
1431.55	1891.65
1420.57	2630.29
1409.56	3037.68
1398.53	3145.46
1387.47	5798.11
1376.4	8311.02
1365.3	5826.56
1354.18	4211.55
1343.03	4982.1
1331.87	5556.32
1320.68	3853.49
1309.47	3078.06
1298.23	2890.12
1286.98	3081.75
1275.7	2567.04
1264.4	2671.83
1253.07	2125.78
1241.72	1740.54
1230.35	1100.85
1218.96	89.7992
1207.54	1.875935
1196.1	121.082
1184.63	555.595
1173.15	1082.5
1161.63	2701.7
1150.1	6119.72
1138.54	5271.2
1126.96	10968.7
1115.35	13571.2
1103.72	11594.9
1092.07	17778.9
1080.39	7555.41
1068.69	5121.14
1056.96	5073.27
1045.21	3492.65
1033.44	2909.69
1021.64	1759.04
1009.81	1061.85
997.965	1921.84
986.092	1196.25
974.194	1125.36
962.271	1149.37
950.324	433.312
938.353	321.549
926.355	682.056
914.333	1833.92
902.285	2561.33
890.213	2699.36
878.115	1283.69
865.991	686.557
853.843	820.77
841.668	795.25
829.469	834.383
817.243	993.101
804.991	765.551
792.714	518.406
780.411	808.171
768.082	806.201
755.727	652.552
743.346	674.965
730.938	923.257
718.504	865.952
706.043	969.977
693.557	477.96
681.043	361.193
668.503	619.807
655.936	752.028
643.342	781.507
630.721	1127.72
618.073	1132.47
605.398	972.852
592.696	752.509
579.968	594.165
567.211	1043.68
554.427	404.203
541.615	207.656
528.776	573.044
515.91	2773.67
503.016	1138.75
490.093	2067.74
477.143	1286.45
464.164	2376.44
451.157	4539.57
438.123	6104.71
425.06	3689.63
411.969	1894.5
398.849	2177.87
385.7	5910.02
372.522	7832.18
359.316	4992.63
346.082	5921.1
332.818	3688.24
319.525	2703.39
306.203	2336.4
292.853	1023.06
279.472	22.8173
266.062	276.837
252.623	829.229
239.153	909.142
225.655	434.484
212.126	166.324
198.568	44.7358
184.979	864.239
171.361	1575.52
157.713	539.323
144.033	327.047
130.324	-159.413
118.549	210.102