File: Part 6 Raman Spectroscopy/Raman data/Microcellulose.txt
#Wave		#Intensity
4001.69	4819.37
3992.57	4187.65
3983.42	4147.33
3974.26	4535.8
3965.08	4788.32
3955.87	4147.2
3946.64	3979.21
3937.4	4419.97
3928.13	4603.86
3918.84	4098.7
3909.53	3857.77
3900.2	4014.08
3890.84	4460.62
3881.47	4077.99
3872.08	3803.65
3862.66	4043.06
3853.22	4088.23
3843.76	3935.06
3834.28	3755.47
3824.77	3911.66
3815.25	3999.73
3805.7	3880.3
3796.13	3565.54
3786.54	3851.78
3776.93	3773.48
3767.29	3413.09
3757.63	3134.08
3747.95	3041.98
3738.25	2881.49
3728.52	2032.7
3718.78	1272.11
3709.01	814.576
3699.21	707.824
3689.4	831.724
3679.56	1448.22
3669.7	1483.9
3659.81	875.282
3649.9	725.543
3639.97	928.079
3630.02	1191.56
3620.04	1047.26
3610.04	764.993
3600.02	870.767
3589.97	1108.9
3579.9	1085.91
3569.8	857.021
3559.68	913.359
3549.54	1255.44
3539.38	1111.08
3529.18	977.455
3518.97	1065.62
3508.73	1253.66
3498.47	1073.1
3488.18	1135.44
3477.87	1277.14
3467.53	1467.83
3457.17	1300.81
3446.78	1312.55
3436.37	1533.83
3425.94	1503.11
3415.48	1425.9
3404.99	1574.3
3394.48	1565.65
3383.94	1500.98
3373.38	1560.59
3362.8	1675.67
3352.18	1657.14
3341.55	1670.05
3330.88	1769.55
3320.2	1755.69
3309.48	1808.96
3298.74	1897.81
3287.97	2017.22
3277.18	1990.93
3266.36	2012.21
3255.52	2033.38
3244.64	2127.62
3233.75	2030.58
3222.82	2067.95
3211.87	2116.83
3200.89	2057.89
3189.89	1966.56
3178.86	1410.23
3167.8	663.928
3156.71	544.201
3145.6	579.829
3134.46	589.93
3123.29	609.171
3112.1	612.261
3100.88	601.605
3089.62	638.915
3078.35	687.417
3067.04	735.674
3055.71	745.181
3044.34	723.004
3032.95	806.859
3021.54	809.355
3010.09	948.633
2998.61	993.255
2987.11	1280.88
2975.58	1591.55
2964.01	1942.85
2952.42	2212.65
2940.8	2498.75
2929.16	2818.67
2917.48	3464.51
2905.77	4146.55
2894.04	4602.04
2882.27	4245.76
2870.47	3658.37
2858.65	3043.5
2846.79	2652.56
2834.91	2514.12
2822.99	2458.22
2811.05	2316.62
2799.07	2180
2787.06	2227.93
2775.03	2211.61
2762.96	2348.53
2750.86	2404.09
2738.73	2465.7
2726.57	2607.19
2714.38	2691.09
2702.16	2604.41
2689.91	2557.94
2677.62	2647.52
2665.31	2742.86
2652.96	2789.88
2640.58	2782.71
2628.17	3023.74
2615.72	3007.71
2603.25	3039.05
2590.74	3252.86
2578.2	3307.91
2565.62	3415.73
2553.02	3563.69
2540.38	3586.95
2527.71	3680.97
2515.01	3709.79
2502.27	3879.51
2489.5	3985.99
2476.69	4075.84
2463.86	4239.17
2450.99	4273.96
2438.08	4529.33
2425.14	4652.38
2412.17	4798.48
2399.16	4959.55
2386.12	5226.03
2373.05	5121.97
2359.94	5323.86
2346.79	5428.94
2333.61	5716.49
2320.4	5748
2307.15	5951.71
2293.86	6019.03
2280.54	6492.55
2267.19	6644.44
2253.8	6841.46
2240.37	7031.63
2226.91	7152.07
2213.41	7279.41
2199.88	7451.5
2186.3	7792.83
2172.7	7881.37
2159.05	8157.48
2145.37	8375.74
2131.66	8588.99
2117.9	8814.08
2104.11	9034.13
2090.28	9466.37
2076.41	9527.79
2062.51	9991.24
2048.57	10157.5
2034.59	10229.1
2020.57	10294.7
2006.51	10958.9
1992.42	11178.5
1978.29	11520.4
1964.12	12113.9
1949.91	12207.2
1935.66	12492.7
1921.37	12828.5
1907.04	13386.3
1892.67	13719.4
1878.27	14039.8
1863.82	14454.3
1849.33	14793.6
1834.81	15184
1820.24	15734.1
1805.63	15989.3
1790.99	16444.4
1776.3	16802.5
1761.57	17459.9
1746.8	18077
1731.99	18437.4
1717.14	18814.6
1702.24	19082.6
1687.31	19919.5
1672.33	20477.3
1657.31	20946.2
1642.25	21315.2
1627.14	21688.7
1612	22332.6
1596.81	22580.7
1581.57	23130.4
1566.3	23515.4
1550.98	23591.3
1535.62	24461.9
1520.21	24799
1504.76	24933
1489.27	26121.2
1473.73	28123.3
1458.15	28431.9
1442.52	27876.1
1426.85	29322.9
1411.13	30560.2
1395.37	31381.4
1379.56	36154.5
1363.71	33620.5
1347.81	32708.5
1331.87	34277.3
1315.88	32403.2
1299.84	32051.9
1283.76	32171.6
1267.63	32399.9
1251.45	31972.8
1235.23	31217.1
1218.96	30135.8
1202.64	30397.3
1186.27	30501.6
1169.86	31566.6
1153.4	35612.4
1136.89	35769.4
1120.33	44791.2
1103.72	42190.1
1087.07	42738.1
1070.36	35819.9
1053.61	35519.8
1036.8	33829.7
1019.95	32371.4
1003.05	32207.3
986.092	32059
969.088	32700.5
952.032	31145.2
934.927	31519.2
917.771	32472.5
900.562	34256.4
883.303	33079
865.991	32329.3
848.628	32514.8
831.213	32601.5
813.745	32962.1
796.225	33468
778.651	33878.4
761.025	34341.2
743.346	34356.5
725.612	35048.7
707.825	35020.5
689.983	35835
672.088	36038.8
654.138	36512.6
636.134	37373.6
618.073	38191.9
599.958	38440.8
581.788	38956
563.562	39474.6
545.279	39369
526.94	40356.5
508.545	41546.6
490.093	42600.9
471.584	41890
453.018	46109.3
434.394	48211.5
415.712	44092
396.972	43473.2
378.174	52365.1
359.316	46594.9
340.401	45970.9
321.426	44061
302.392	42705.9
283.298	40400.2
264.144	40037.8
244.93	40348.9
225.655	39517.8
206.319	38878.5
186.923	39178
167.465	39686.1
147.945	38512.8
128.363	39212.6
108.72	34227
100.845	22316.7